File: Tafel/CCN-AO.txt
C:\Users\user\Desktop\Luka Suhadolnik - Arminov BioL\5. december 2022\05-12-2022\1 M KOH Titripur\RDE10 - HEA-N-AO 50V 5m 10.11.22 FIB STEM\teflonski holder\3 OER O2 2 mVs 5000 RPM_02_CV_C01.mpr
Ewe/V vs. SCE	<I>/mA
1,300980210304260E+000	-1,369383380273059E-001
1,304357767105103E+000	2,571335479268305E-002
1,307762742042542E+000	7,143408743201274E-002
1,311146974563599E+000	9,199291605748661E-002
1,314549565315247E+000	1,198717115490673E-001
1,317966341972351E+000	1,278395766742380E-001
1,321356654167175E+000	1,296484201601129E-001
1,324720740318298E+000	1,382149154000031E-001
1,328112006187439E+000	1,497660988161984E-001
1,331519961357117E+000	1,690475107737259E-001
1,334941148757935E+000	1,693549246358490E-001
1,338351249694824E+000	1,799984037954268E-001
1,341753721237183E+000	1,787284506264974E-001
1,345149755477905E+000	1,905341369747475E-001
1,348543763160706E+000	2,256281165872460E-001
1,351966381072998E+000	2,200387654065392E-001
1,355367660522461E+000	2,137944412006136E-001
1,358764529228210E+000	2,213295320090989E-001
1,362121462821960E+000	2,236692218728624E-001
1,365532517433167E+000	2,410756840815549E-001
1,368925452232361E+000	2,406604886623869E-001
1,372346401214600E+000	2,476203289584235E-001
1,375753998756409E+000	2,444128716501672E-001
1,379137635231018E+000	2,474609852226521E-001
1,382546544075012E+000	2,356384546715652E-001
1,385923266410828E+000	2,377671760036034E-001
1,389309763908386E+000	2,213817635500903E-001
1,392725825309753E+000	2,257561281517835E-001
1,396147727966309E+000	2,270380492984043E-001
1,399524450302124E+000	2,163668365295459E-001
1,402909398078918E+000	1,970285860715197E-001
1,406288623809814E+000	1,930967277326103E-001
1,409696459770203E+000	1,922928225812754E-001
1,413130998611450E+000	1,957999666379315E-001
1,416517853736877E+000	1,952250627594434E-001
1,419922709465027E+000	2,020575013934227E-001
1,423337936401367E+000	2,117156381243068E-001
1,426715254783630E+000	2,125795448640044E-001
1,430127263069153E+000	2,342798198370346E-001
1,433527827262878E+000	2,559381649569894E-001
1,436921119689941E+000	2,880670191115668E-001
1,440285682678223E+000	3,206924081527394E-001
1,443680167198181E+000	3,866129660108584E-001
1,447096705436707E+000	4,675354353303809E-001
1,450512528419495E+000	5,620346595290520E-001
1,453910470008850E+000	6,755615387245557E-001
1,457293391227722E+000	8,536708565865681E-001
1,460702300071716E+000	1,096895800635128E+000
1,464131474494934E+000	1,322522917525287E+000
1,467512488365173E+000	1,670361144177772E+000
1,470890522003174E+000	2,081508895312048E+000
1,474294304847717E+000	2,589545263494197E+000
1,477700710296631E+000	3,229543507468669E+000
1,481096982955933E+000	3,971299145170278E+000
1,484506011009216E+000	4,786696467047548E+000
1,487870812416077E+000	5,807711058923182E+000
1,491292238235474E+000	7,104942301169400E+000
1,494670987129211E+000	8,398106841881742E+000
1,498109221458435E+000	9,861960421355093E+000
1,501469373703003E+000	1,167692865181486E+001
1,504836320877075E+000	1,350358995506352E+001
1,508225679397583E+000	1,592707156598082E+001
1,511626958847046E+000	1,780227241956726E+001
1,515032410621643E+000	2,055794378617213E+001
1,518422007560730E+000	2,294750179099941E+001
1,521798372268677E+000	2,607535370979003E+001
1,525222778320313E+000	2,858041476733712E+001
1,528618216514587E+000	3,334514912738229E+001
1,532035112380981E+000	3,571635719170536E+001
1,535391330718994E+000	3,983740160077980E+001
1,538797736167908E+000	4,442947933150322E+001
1,542222380638123E+000	4,693448065406528E+001
1,545573949813843E+000	5,278674521875109E+001
1,549009442329407E+000	5,510165303894757E+001
1,552378535270691E+000	5,936775799769043E+001
1,555754780769348E+000	6,278256788659189E+001
1,559140920639038E+000	6,785246509248418E+001
1,562514781951904E+000	7,154655545021762E+001
1,565921068191528E+000	7,607362127525062E+001
1,569322705268860E+000	8,301376016769791E+001
1,572720766067505E+000	8,727946938340619E+001
1,576101183891296E+000	9,240920921405268E+001
1,579501867294312E+000	9,851232207641993E+001
1,582883000373840E+000	1,015891281381239E+002
1,586231708526611E+000	1,048705053187826E+002
1,589639544487000E+000	1,111947065347701E+002
1,592997431755066E+000	1,174423862283188E+002
1,596439123153687E+000	1,207562442624035E+002
1,599397778511047E+000	1,254570821263396E+002
1,598922014236450E+000	1,256360311917341E+002
1,595502734184265E+000	1,192172859235988E+002
1,592105627059937E+000	1,139291265617928E+002
1,588765144348145E+000	1,111966944195968E+002
1,585343241691589E+000	1,049748957365352E+002
1,581942558288574E+000	1,001179371323028E+002
1,578571677207947E+000	9,356618726738634E+001
1,575194239616394E+000	8,951861900075460E+001
1,571816086769104E+000	8,522021454711077E+001
1,568403482437134E+000	8,323208962821582E+001
1,564999818801880E+000	7,842997107501662E+001
1,561631083488464E+000	7,442008308656762E+001
1,558249711990356E+000	7,096025207995194E+001
1,554837822914124E+000	6,635675110543292E+001
1,551481962203979E+000	6,261175005098733E+001
1,548100709915161E+000	5,836195664579787E+001
1,544717431068420E+000	5,179278818605485E+001
1,541323900222778E+000	5,098232112982441E+001
1,537922143936157E+000	4,632084850004753E+001
1,534523248672485E+000	4,406570838355117E+001
1,531123995780945E+000	3,953776188794697E+001
1,527724266052246E+000	3,705107586124387E+001
1,524333834648132E+000	3,239868981084396E+001
1,520911335945129E+000	2,990945923117209E+001
1,517529964447021E+000	2,682826307540734E+001
1,514131546020508E+000	2,367312613782730E+001
1,510721802711487E+000	2,097311506886092E+001
1,507347106933594E+000	1,922079231221727E+001
1,503920078277588E+000	1,633486934887690E+001
1,500549674034119E+000	1,445719196940445E+001
1,497152686119080E+000	1,275475323782403E+001
1,493752479553223E+000	1,116409374530333E+001
1,490350484848022E+000	9,271389795773700E+000
1,486967206001282E+000	7,942315608900330E+000
1,483551383018494E+000	6,586422353774161E+000
1,480197429656982E+000	5,413786650672961E+000
1,476775646209717E+000	4,578116408096278E+000
1,473416447639465E+000	3,721937630710572E+000
1,469979643821716E+000	3,030575869765336E+000
1,466581106185913E+000	2,493176259932685E+000
1,463216900825500E+000	1,979946293760946E+000
1,459810495376587E+000	1,611577215809618E+000
1,456407189369202E+000	1,277565386031197E+000
1,453030109405518E+000	1,001671936123453E+000
1,449621438980103E+000	7,739613376422625E-001
1,446208953857422E+000	5,900597034752191E-001
1,442801713943481E+000	4,474536491936153E-001
1,439404010772705E+000	3,418200188034550E-001
1,436030387878418E+000	2,547748317763334E-001
1,432631731033325E+000	1,851058810908164E-001
1,429212331771851E+000	1,237288212056404E-001
1,425832271575928E+000	8,657125344651107E-002
1,422421455383301E+000	4,908305176357675E-002
1,419030070304871E+000	2,859456093981489E-002
1,415634870529175E+000	1,549396303996547E-002
1,412230014801025E+000	4,098156910368340E-003
1,408818721771240E+000	-1,482590577043322E-002
1,405424833297729E+000	-1,860731506094854E-002
1,402009367942810E+000	-3,561568002869198E-002
1,398646593093872E+000	-3,470997240927598E-002
1,395262718200684E+000	-4,108148980605442E-002
1,391824007034302E+000	-5,005489375875993E-002
1,388404488563538E+000	-5,206592046485994E-002
1,385008692741394E+000	-6,302633711132066E-002
1,381607770919800E+000	-6,059378504522683E-002
1,378224134445190E+000	-5,768325773353955E-002
1,374824762344360E+000	-5,815875363507694E-002
1,371430993080139E+000	-7,529047667581379E-002
1,368007063865662E+000	-8,281519717947305E-002
1,364599704742432E+000	-9,264769708373843E-002
1,361236572265625E+000	-8,997408826479103E-002
1,357843399047852E+000	-1,031939144014100E-001
1,354413509368896E+000	-1,098172100762549E-001
1,351014494895935E+000	-1,052929849140510E-001
1,347614765167236E+000	-1,305522666051120E-001
1,344205975532532E+000	-1,327127397410510E-001
1,340824842453003E+000	-1,504349082552030E-001
1,337419152259827E+000	-1,623863118940999E-001
1,334005236625671E+000	-1,703267794076933E-001

1,332287311553955E+000	-1,801990092108920E-001
1,330591559410095E+000	-2,002342698310788E-001
1,328894495964050E+000	-1,944970610791563E-001
1,327204465866089E+000	-2,027805234203743E-001
1,325500845909119E+000	-2,118578772761328E-001
1,323830008506775E+000	-2,079858956138221E-001
1,322151064872742E+000	-2,209333816823200E-001
1,320455074310303E+000	-2,287720056748941E-001
1,318756341934204E+000	-2,326356923574582E-001
1,317053318023682E+000	-2,325518667553190E-001
1,315334796905518E+000	-2,297075427410109E-001
1,313638687133789E+000	-2,465702324262118E-001
1,311930775642395E+000	-2,464702844399802E-001
1,310241222381592E+000	-2,519344341810359E-001
1,308557271957397E+000	-2,596897127003164E-001
1,306861400604248E+000	-2,534972391902004E-001
1,305165052413940E+000	-2,617168418080604E-001
1,303443431854248E+000	-2,704275553989343E-001
1,301751255989075E+000	-2,735335568021879E-001
1,300514101982117E+000	-2,915379152247430E-001
1,300036787986755E+000	-2,839806040650923E-001