File: Tafel/FeCoNiCuMn-N-AO.txt
EC-Lab ASCII FILE
Nb header lines : 59

Cyclic Voltammetry

Run on channel : 1 (SN 1153)
User :
Electrode connection : standard
Potential control : Ewe
Ewe ctrl range : min = -2,50 V, max = 2,50 V
Ewe,I filtering : 50 kHz
Safety Limits :
	Do not start on E overload
Channel : Grounded
Acquisition started on : 12/16/2024 17:47:38.305
Loaded Setting File :  C:\Users\lab10\Desktop\Luka Suhadolnik\K12-3_FeCoNiCuMn\6 OER.mps
Saved on :
	File : 4 OER_03_CV_C01.mpr
	Directory : C:\Users\lab10\Desktop\Luka Suhadolnik\K11-4\
	Host : 192.168.0.28
Device : SP-200 (SN 0067)
Address : USB
EC-Lab for windows v11.52 (software)
Internet server v11.52 (firmware)
Command interpretor v11.52 (firmware)
Electrode material :
Initial state :
Electrolyte :
Comments :
Cable : standard
Electrode surface area : 0,001 cm²
Characteristic mass : 0,001 g
Equivalent Weight : 0,000 g/eq.
Density : 0,000 g/cm3
Volume (V) : 0,001 cm³
Cycle Definition : Charge/Discharge alternance
Ei (V)              0,277
vs.                 Ref
dE/dt               2,000
dE/dt unit          mV/s
E1 (V)              0,627
vs.                 Ref
Step percent        85
N                   17
E range min (V)     -2,500
E range max (V)     2,500
I Range             100 mA
I Range min         Unset
I Range max         Unset
I Range init        Unset
Bandwidth           8
E2 (V)              0,277
vs.                 Ref
nc cycles           0
Reverse Scan        1
Ef (V)              0,277
vs.                 Ref

mode	ox/red	error	control changes	counter inc.	time/s	control/V	Ewe/V	<I>/mA	cycle number	(Q-Qo)/C	I Range	Rcmp/Ohm	step time/s	P/W
2	1	0	1	0	5,100999871137901E+000	2,7696514E-001	2,7624631E-001	7,192376255989075E-001	1,000000000000000E+000	0,0000000E+000	38	4,5899997E+000	0,000000000000000E+000	1,9868674E-004
2	1	0	1	0	1,149929970950325E+001	2,8976151E-001	2,8903016E-001	4,724470873515028E-001	1,000000000000000E+000	3,6612458E-003	38	4,5899973E+000	5,948399849730777E+000	1,3655146E-004
2	1	0	1	0	1,829759953776374E+001	3,0335811E-001	3,0263767E-001	3,921912795278510E-001	1,000000000000000E+000	6,5603144E-003	38	4,5899973E+000	1,274669967799127E+001	1,1869185E-004
2	1	0	1	0	2,509589936602424E+001	3,1695467E-001	3,1624481E-001	3,642123061436761E-001	1,000000000000000E+000	9,1232294E-003	38	4,5899973E+000	1,954499950625177E+001	1,1518025E-004
2	1	0	1	0	3,189409919428726E+001	3,3055109E-001	3,2986411E-001	3,543212540780951E-001	1,000000000000000E+000	1,1574583E-002	38	4,5899973E+000	2,634319933451479E+001	1,1687787E-004
2	1	0	1	0	3,869229902255029E+001	3,4414747E-001	3,4344250E-001	3,507288678136461E-001	1,000000000000000E+000	1,3991139E-002	38	4,5899973E+000	3,314139916277782E+001	1,2045520E-004
2	1	0	1	0	4,549049885081331E+001	3,5774386E-001	3,5703939E-001	3,534001889428744E-001	1,000000000000000E+000	1,6403785E-002	38	4,5899973E+000	3,993959899104084E+001	1,2617779E-004
2	1	0	1	0	5,228869867907633E+001	3,7134027E-001	3,7063774E-001	3,658763258269184E-001	1,000000000000000E+000	1,8855657E-002	38	4,5899973E+000	4,673779881930386E+001	1,3560758E-004
2	1	0	1	0	5,908689850733936E+001	3,8493669E-001	3,8423106E-001	3,957853187359461E-001	1,000000000000000E+000	2,1458063E-002	38	4,5899973E+000	5,353599864756688E+001	1,5207301E-004
2	1	0	1	0	6,588509833560238E+001	3,9853305E-001	3,9781770E-001	4,551017970928717E-001	1,000000000000000E+000	2,4369989E-002	38	4,5899973E+000	6,033419847582991E+001	1,8104755E-004
2	1	0	1	0	7,268349816386035E+001	4,1212985E-001	4,1144913E-001	5,532110454276058E-001	1,000000000000000E+000	2,7814694E-002	38	4,5899973E+000	6,713259830408788E+001	2,2761821E-004
2	1	0	1	0	7,948169799212337E+001	4,2572626E-001	4,2501396E-001	7,101920745410082E-001	1,000000000000000E+000	3,2127850E-002	38	4,5899973E+000	7,393079813235090E+001	3,0184156E-004
2	1	0	1	0	8,627989782038640E+001	4,3932262E-001	4,3864813E-001	9,320752509993744E-001	1,000000000000000E+000	3,7738923E-002	38	4,5899973E+000	8,072899796061392E+001	4,0885308E-004
2	1	0	1	0	9,307809764864942E+001	4,5291904E-001	4,5225656E-001	1,031218523415276E+000	1,000000000000000E+000	4,4702861E-002	38	4,5899973E+000	8,752719778887695E+001	4,6637535E-004
2	1	0	1	0	9,987629747691244E+001	4,6651542E-001	4,6584612E-001	7,103246294946484E-001	1,000000000000000E+000	5,0666545E-002	38	4,5899973E+000	9,432539761713997E+001	3,3090197E-004
2	1	0	1	0	1,066744973051755E+002	4,8011181E-001	4,7946718E-001	6,063647828259273E-001	1,000000000000000E+000	5,5141520E-002	38	4,5899973E+000	1,011235974454030E+002	2,9073202E-004
2	1	0	1	0	1,134726971334385E+002	4,9370825E-001	4,9304038E-001	5,524442163902530E-001	1,000000000000000E+000	5,9137199E-002	38	4,5899973E+000	1,079217972736660E+002	2,7237731E-004
2	1	0	1	0	1,202710969616965E+002	5,0730497E-001	5,0660789E-001	5,363973502255330E-001	1,000000000000000E+000	6,2878892E-002	38	4,5899973E+000	1,147201971019240E+002	2,7174313E-004
2	1	0	1	0	1,270692967899595E+002	5,2090138E-001	5,2023357E-001	6,137384777606492E-001	1,000000000000000E+000	6,6785417E-002	38	4,5899973E+000	1,215183969301870E+002	3,1928736E-004
2	1	0	1	0	1,338674966182225E+002	5,3449774E-001	5,3385645E-001	9,376079602659733E-001	1,000000000000000E+000	7,1955398E-002	38	4,5899973E+000	1,283165967584500E+002	5,0054805E-004
2	1	0	1	0	1,406656964464855E+002	5,4809421E-001	5,4743087E-001	1,845413870080765E+000	1,000000000000000E+000	8,1028283E-002	38	4,5899973E+000	1,351147965867131E+002	1,0102366E-003
2	1	0	1	0	1,474638962747485E+002	5,6169057E-001	5,6103551E-001	3,970022290683971E+000	1,000000000000000E+000	1,0005528E-001	38	4,5899973E+000	1,419129964149761E+002	2,2273236E-003
2	1	0	1	0	1,542620961030116E+002	5,7528692E-001	5,7464558E-001	7,887814298409495E+000	1,000000000000000E+000	1,3943599E-001	38	4,5899978E+000	1,487111962432391E+002	4,5326976E-003
2	1	0	1	0	1,610602959312746E+002	5,8888328E-001	5,8822858E-001	1,392776488526851E+001	1,000000000000000E+000	2,1287434E-001	38	4,5899973E+000	1,555093960715021E+002	8,1927096E-003
2	1	0	1	0	1,678584957595376E+002	6,0247976E-001	6,0178745E-001	2,171889419402879E+001	1,000000000000000E+000	3,3270699E-001	38	4,5899973E+000	1,623075958997651E+002	1,3070158E-002
2	1	0	1	0	1,746568955877956E+002	6,1607659E-001	6,1537153E-001	3,045748771621317E+001	1,000000000000000E+000	5,0991958E-001	38	4,5899973E+000	1,691059957280231E+002	1,8742671E-002
2	1	0	1	0	1,805558954387743E+002	6,2607372E-001	6,2540549E-001	3,804346458037811E+001	1,000000000000000E+000	7,1394992E-001	38	4,5899973E+000	1,750049955790018E+002	2,3792591E-002
2	1	0	1	0	1,873540952670373E+002	6,1247736E-001	6,1177844E-001	2,926589117534400E+001	1,000000000000000E+000	9,4070154E-001	38	4,5899973E+000	1,818031954072649E+002	1,7904241E-002
2	1	0	1	0	1,941522950953004E+002	5,9888095E-001	5,9820801E-001	2,021677745577685E+001	1,000000000000000E+000	1,1074262E+000	38	4,5899973E+000	1,886013952355279E+002	1,2093838E-002
2	1	0	1	0	2,009504949235634E+002	5,8528459E-001	5,8462667E-001	1,350180569540862E+001	1,000000000000000E+000	1,2195201E+000	38	4,5899978E+000	1,953995950637909E+002	7,8935158E-003
2	1	0	1	0	2,077486947518264E+002	5,7168812E-001	5,7102638E-001	7,492559690356757E+000	1,000000000000000E+000	1,2889235E+000	38	4,5899978E+000	2,021977948920539E+002	4,2784493E-003
2	1	0	1	0	2,145468945800894E+002	5,5809176E-001	5,5744135E-001	3,741293939273387E+000	1,000000000000000E+000	1,3261857E+000	38	4,5899973E+000	2,089959947203170E+002	2,0855519E-003
2	1	0	1	0	2,213452944083474E+002	5,4449493E-001	5,4381645E-001	1,625086019540820E+000	1,000000000000000E+000	1,3435203E+000	38	4,5899973E+000	2,157943945485749E+002	8,8374852E-004
2	1	0	1	0	2,281434942366104E+002	5,3089851E-001	5,3022462E-001	6,387863165845912E-001	1,000000000000000E+000	1,3506815E+000	38	4,5899973E+000	2,225925943768380E+002	3,3870022E-004
2	1	0	1	0	2,349416940648734E+002	5,1730216E-001	5,1661855E-001	2,317578059891202E-001	1,000000000000000E+000	1,3533440E+000	38	4,5899973E+000	2,293907942051010E+002	1,1973038E-004
2	1	0	1	0	2,417398938931365E+002	5,0370574E-001	5,0300658E-001	7,908196641338350E-002	1,000000000000000E+000	1,3542461E+000	38	4,5899973E+000	2,361889940333640E+002	3,9778748E-005
2	1	0	1	0	2,485380937213995E+002	4,9010941E-001	4,8941210E-001	1,778380172358685E-002	1,000000000000000E+000	1,3544780E+000	38	4,5899973E+000	2,429871938616270E+002	8,7036078E-006
2	1	0	1	0	2,553362935496625E+002	4,7651300E-001	4,7581369E-001	-1,653127428810053E-002	1,000000000000000E+000	1,3544060E+000	38	4,5899973E+000	4,248799892666284E+000	-7,8658068E-006
2	0	0	1	0	2,621344933779255E+002	4,6291661E-001	4,6222743E-001	-4,505863928140341E-002	1,000000000000000E+000	1,3541291E+000	38	4,5899973E+000	1,104699972092931E+001	-2,0827340E-005
2	0	0	1	0	2,689328932061835E+002	4,4931984E-001	4,4864973E-001	-8,205961000571360E-002	1,000000000000000E+000	1,3536298E+000	38	4,5899973E+000	1,784539954918728E+001	-3,6816022E-005
2	0	0	1	0	2,757310930344465E+002	4,3572342E-001	4,3503401E-001	-1,360443078293191E-001	1,000000000000000E+000	1,3528254E+000	38	4,5899973E+000	2,464359937745030E+001	-5,9183902E-005
2	0	0	1	0	2,825292928627096E+002	4,2212704E-001	4,2144114E-001	-1,960332133616265E-001	1,000000000000000E+000	1,3516289E+000	38	4,5899973E+000	3,144179920571332E+001	-8,2616461E-005
2	0	0	1	0	2,893274926909726E+002	4,0853062E-001	4,0782699E-001	-2,549908740840755E-001	1,000000000000000E+000	1,3500152E+000	38	4,5899973E+000	3,823999903397635E+001	-1,0399216E-004
2	0	0	1	0	2,961256925192356E+002	3,9493418E-001	3,9422938E-001	-2,871556319838309E-001	1,000000000000000E+000	1,3480874E+000	38	4,5899973E+000	4,503819886223937E+001	-1,1320518E-004
2	0	0	1	0	3,029238923474986E+002	3,8133785E-001	3,8063976E-001	-2,847843769882257E-001	1,000000000000000E+000	1,3460656E+000	38	4,5899973E+000	5,183639869050239E+001	-1,0840026E-004
2	0	0	1	0	3,097220921757616E+002	3,6774141E-001	3,6704159E-001	-2,567274547164642E-001	1,000000000000000E+000	1,3441559E+000	38	4,5899973E+000	5,863459851876542E+001	-9,4229654E-005
2	0	0	1	0	3,165204920040196E+002	3,5414466E-001	3,5342258E-001	-2,185818708165649E-001	1,000000000000000E+000	1,3424810E+000	38	4,5899973E+000	6,543299834702339E+001	-7,7251767E-005
2	0	0	1	0	3,233186918322826E+002	3,4054828E-001	3,3984715E-001	-1,812961297976914E-001	1,000000000000000E+000	1,3410727E+000	38	4,5899973E+000	7,223119817528641E+001	-6,1612969E-005
2	0	0	1	0	3,301168916605457E+002	3,2695189E-001	3,2625213E-001	-1,514213566222276E-001	1,000000000000000E+000	1,3398995E+000	38	4,5899973E+000	7,902939800354943E+001	-4,9401540E-005
2	0	0	1	0	3,369150914888087E+002	3,1335545E-001	3,1264740E-001	-1,287222521285907E-001	1,000000000000000E+000	1,3389064E+000	38	4,5899973E+000	8,582759783181245E+001	-4,0244679E-005
2	0	0	1	0	3,437132913170717E+002	2,9975909E-001	2,9908779E-001	-1,115786817704520E-001	1,000000000000000E+000	1,3380536E+000	38	4,5899973E+000	9,262579766007548E+001	-3,3371820E-005
2	0	0	1	0	3,505114911453347E+002	2,8616267E-001	2,8549218E-001	-9,673168507069063E-002	1,000000000000000E+000	1,3373171E+000	38	4,5899973E+000	9,942399748833850E+001	-2,7616139E-005
2	0	0	1	1	3,550681910302228E+002	2,7696514E-001	2,7628088E-001	-8,182364702224731E-002	1,000000000000000E+000	1,3368804E+000	38	4,5899997E+000	1,039806973732266E+002	-2,2606309E-005