File: ECSA/ECSA header/4 CV for ECSA_05_CV_C01.txt
EC-Lab ASCII FILE
Nb header lines : 61

Cyclic Voltammetry

Run on channel : 1 (SN 1153)
User :
Electrode connection : standard
Potential control : Ewe
Ewe ctrl range : min = -2,50 V, max = 2,50 V
Ewe,I filtering : 50 kHz
Safety Limits :
	Do not start on E overload
Channel : Grounded
Acquisition started on : 12/20/2024 11:49:19.340
Technique started on : 12/20/2024 11:49:26.551
Loaded Setting File :  C:\Users\lab10\Desktop\Andraž Stariha\T20-6_ED-PP-Fe-1-1.5V-50-10-60m\6 CV for ECSA.mps
Saved on :
	File : 4 CV for ECSA_05_CV_C01.mpr
	Directory : C:\Users\lab10\Desktop\Andraž Stariha\IMT16-Fe-3_ED-PP-Co-1-1.5V-50-10-60m\
	Host : 178.172.20.122
Device : SP-200 (SN 0067)
Address : USB
EC-Lab for windows v11.52 (software)
Internet server v11.52 (firmware)
Command interpretor v11.52 (firmware)
Electrode material :
Initial state :
Electrolyte :
Comments :
Cable : standard
Reference electrode : SCE Saturated Calomel Electrode (0,241 V)
Electrode surface area : 0,001 cm²
Characteristic mass : 0,001 g
Equivalent Weight : 0,000 g/eq.
Density : 0,000 g/cm3
Volume (V) : 0,001 cm³
Cycle Definition : Charge/Discharge alternance
Ei (V)              -0,150
vs.                 Ref
dE/dt               100,000
dE/dt unit          mV/s
E1 (V)              0,050
vs.                 Ei
Step percent        85
N                   17
E range min (V)     -2,500
E range max (V)     2,500
I Range             10 mA
I Range min         Unset
I Range max         Unset
I Range init        Unset
Bandwidth           8
E2 (V)              -0,050
vs.                 Ei
nc cycles           2
Reverse Scan        1
Ef (V)              0,000
vs.                 Ei

Ewe/V	<I>/mA	time/s	cycle number
-1,4995091E-001	3,863051533699036E-002	7,210599817844923E+000	1,000000000000000E+000
-1,4391685E-001	2,061693315226887E-002	7,270599816329195E+000	1,000000000000000E+000
-1,3711524E-001	2,842066224820894E-002	7,338599814611371E+000	1,000000000000000E+000
-1,3032094E-001	3,562650914682325E-002	7,406599812893546E+000	1,000000000000000E+000
-1,2353639E-001	4,260644003625214E-002	7,474599811175722E+000	1,000000000000000E+000
-1,1673406E-001	4,929100846311496E-002	7,542599809457897E+000	1,000000000000000E+000
-1,0994212E-001	5,613920313044218E-002	7,610599807740073E+000	1,000000000000000E+000
-1,0312833E-001	6,298739282283394E-002	7,678599806022248E+000	1,000000000000000E+000
-9,9807143E-002	6,770069152116776E-002	7,710999805203755E+000	1,000000000000000E+000
-1,0582351E-001	1,010933545831003E-002	7,770999803688028E+000	1,000000000000000E+000
-1,1265486E-001	-1,048055076853410E-002	7,838999801970203E+000	1,000000000000000E+000
-1,1944321E-001	-2,366042888024811E-002	7,906999800252379E+000	1,000000000000000E+000
-1,2622894E-001	-3,321786114065595E-002	7,974999798534554E+000	1,000000000000000E+000
-1,3300581E-001	-4,069135303507165E-002	8,042999796816730E+000	1,000000000000000E+000
-1,3981867E-001	-4,723882204598306E-002	8,110999795098905E+000	1,000000000000000E+000
-1,4662099E-001	-5,275862739654258E-002	8,178999793381081E+000	1,000000000000000E+000
-1,5342773E-001	-5,778665762409202E-002	8,246799791668309E+000	1,000000000000000E+000
-1,6022025E-001	-6,222574996354524E-002	8,314799789950484E+000	1,000000000000000E+000
-1,6702618E-001	-6,630450610828109E-002	8,382799788232660E+000	1,000000000000000E+000
-1,7381345E-001	-7,050009333033813E-002	8,450799786514835E+000	1,000000000000000E+000
-1,8061386E-001	-7,421523417724502E-002	8,518799784797011E+000	1,000000000000000E+000
-1,8744010E-001	-7,808326617305239E-002	8,586799783079186E+000	1,000000000000000E+000
-1,9422272E-001	-8,178261178909430E-002	8,654799781361362E+000	1,000000000000000E+000
-1,9996855E-001	-8,657725900411606E-002	8,711199779936578E+000	1,000000000000000E+000
-1,9553030E-001	-4,881131014735718E-002	8,755199778825045E+000	1,000000000000000E+000
-1,8871252E-001	-3,048626968029577E-002	8,823199777107220E+000	1,000000000000000E+000
-1,8190128E-001	-1,793527078916662E-002	8,891199775389396E+000	1,000000000000000E+000
-1,7510827E-001	-7,739126881233446E-003	8,959199773671571E+000	1,000000000000000E+000
-1,6830188E-001	1,057689921964318E-003	9,027199771953747E+000	1,000000000000000E+000
-1,6151197E-001	8,943082941186772E-003	9,095199770235922E+000	1,000000000000000E+000
-1,5471810E-001	1,617515944326442E-002	9,163199768518098E+000	1,000000000000000E+000
-1,4982097E-001	2,146308636292815E-002	9,211999767285306E+000	2,000000000000000E+000
-1,4381045E-001	2,700524276951910E-002	9,271999765769579E+000	2,000000000000000E+000
-1,3700774E-001	3,365106374076288E-002	9,339999764051754E+000	2,000000000000000E+000
-1,3020423E-001	3,993028858894865E-002	9,407999762333930E+000	2,000000000000000E+000
-1,2345481E-001	4,626286463644663E-002	9,475999760616105E+000	2,000000000000000E+000
-1,1663337E-001	5,274327050938182E-002	9,543999758898281E+000	2,000000000000000E+000
-1,0983547E-001	5,902667032933118E-002	9,611999757180456E+000	2,000000000000000E+000
-1,0304102E-001	6,537980579378241E-002	9,679999755462632E+000	2,000000000000000E+000
-9,9803321E-002	7,262202352285385E-002	9,711399754669401E+000	2,000000000000000E+000
-1,0581503E-001	1,233871653903414E-002	9,771399753153673E+000	2,000000000000000E+000
-1,1262727E-001	-8,672009966858213E-003	9,839399751435849E+000	2,000000000000000E+000
-1,1944645E-001	-2,203608095260273E-002	9,907399749718024E+000	2,000000000000000E+000
-1,2622429E-001	-3,173478360167775E-002	9,975399748000200E+000	2,000000000000000E+000
-1,3301861E-001	-3,945923361607129E-002	1,004339974628238E+001	2,000000000000000E+000
-1,3982189E-001	-4,606571217482269E-002	1,011139974456455E+001	2,000000000000000E+000
-1,4662039E-001	-5,156316364445945E-002	1,017939974284673E+001	2,000000000000000E+000
-1,5341282E-001	-5,671071070537437E-002	1,024719974113395E+001	2,000000000000000E+000
-1,6019914E-001	-6,117096819616541E-002	1,031519973941613E+001	2,000000000000000E+000
-1,6698700E-001	-6,539010687993119E-002	1,038319973769831E+001	2,000000000000000E+000
-1,7379685E-001	-6,936156367373769E-002	1,045119973598048E+001	2,000000000000000E+000
-1,8059762E-001	-7,328116018106801E-002	1,051919973426266E+001	2,000000000000000E+000
-1,8739924E-001	-7,712326520413604E-002	1,058719973254483E+001	2,000000000000000E+000
-1,9420169E-001	-8,091529887678872E-002	1,065519973082701E+001	2,000000000000000E+000
-1,9989210E-001	-8,528017252683640E-002	1,071159972940222E+001	2,000000000000000E+000
-1,9551225E-001	-4,808497044723489E-002	1,075559972829069E+001	2,000000000000000E+000
-1,8870634E-001	-2,982162758507900E-002	1,082359972657287E+001	2,000000000000000E+000
-1,8188716E-001	-1,741935315658335E-002	1,089159972485504E+001	2,000000000000000E+000
-1,7510588E-001	-7,369550550947707E-003	1,095959972313722E+001	2,000000000000000E+000
-1,6828874E-001	1,486279520619862E-003	1,102759972141939E+001	2,000000000000000E+000
-1,6150205E-001	9,349021165689968E-003	1,109559971970157E+001	2,000000000000000E+000
-1,5469399E-001	1,675634754064970E-002	1,116359971798374E+001	2,000000000000000E+000
-1,4979039E-001	2,147262403741479E-002	1,121239971675095E+001	3,000000000000000E+000
-1,4380255E-001	2,746423265398329E-002	1,127239971523522E+001	3,000000000000000E+000
-1,3700847E-001	3,384837049452483E-002	1,134039971351740E+001	3,000000000000000E+000
-1,3020520E-001	4,037974381390093E-002	1,140839971179958E+001	3,000000000000000E+000
-1,2342029E-001	4,659965650716946E-002	1,147639971008175E+001	3,000000000000000E+000
-1,1662788E-001	5,306158635721681E-002	1,154439970836393E+001	3,000000000000000E+000
-1,0984214E-001	5,948893955610390E-002	1,161239970664610E+001	3,000000000000000E+000
-1,0301367E-001	6,596278287179347E-002	1,168039970492828E+001	3,000000000000000E+000
-9,9803321E-002	7,246942818164825E-002	1,171179970413505E+001	3,000000000000000E+000
-1,0582303E-001	1,282631939648135E-002	1,177179970261932E+001	3,000000000000000E+000
-1,1261436E-001	-8,077110356907682E-003	1,183979970090149E+001	3,000000000000000E+000
-1,1943951E-001	-2,151688424055448E-002	1,190779969918367E+001	3,000000000000000E+000
-1,2621617E-001	-3,129427151270635E-002	1,197579969746585E+001	3,000000000000000E+000
-1,3301311E-001	-3,905985214623792E-002	1,204379969574802E+001	3,000000000000000E+000
-1,3982248E-001	-4,553310328810778E-002	1,211179969403020E+001	3,000000000000000E+000
-1,4661349E-001	-5,118375363053906E-002	1,217979969231237E+001	3,000000000000000E+000
-1,5340289E-001	-5,605173184449092E-002	1,224759969059960E+001	3,000000000000000E+000
-1,6021395E-001	-6,069021947769182E-002	1,231559968888178E+001	3,000000000000000E+000
-1,6700540E-001	-6,483752985877789E-002	1,238359968716395E+001	3,000000000000000E+000
-1,7382097E-001	-6,902447564425551E-002	1,245159968544613E+001	3,000000000000000E+000
-1,8061388E-001	-7,271576664424996E-002	1,251959968372830E+001	3,000000000000000E+000
-1,8742266E-001	-7,645623480129815E-002	1,258759968201048E+001	3,000000000000000E+000
-1,9421826E-001	-8,022204433291291E-002	1,265559968029265E+001	3,000000000000000E+000
-1,9993414E-001	-8,425012230873108E-002	1,271199967886787E+001	3,000000000000000E+000
-1,9553399E-001	-4,762568296791839E-002	1,275599967775634E+001	3,000000000000000E+000
-1,8872163E-001	-2,941360269232973E-002	1,282399967603851E+001	3,000000000000000E+000
-1,8189804E-001	-1,699523461320497E-002	1,289199967432069E+001	3,000000000000000E+000
-1,7511113E-001	-6,862574570277488E-003	1,295999967260286E+001	3,000000000000000E+000
-1,6831513E-001	1,759885454333698E-003	1,302799967088504E+001	3,000000000000000E+000
-1,6150992E-001	9,664353233347439E-003	1,309599966916721E+001	3,000000000000000E+000
-1,5471430E-001	1,683652135579911E-002	1,316399966744939E+001	3,000000000000000E+000
-1,4993562E-001	2,212117239832878E-002	1,321179966624186E+001	3,000000000000000E+000
-1,4982478E-001	2,672776393592358E-002	1,321199966623681E+001	3,000000000000000E+000