File: ECSA/ECSA header/4 CV for ECSA_03_CV_C01.txt
EC-Lab ASCII FILE
Nb header lines : 61

Cyclic Voltammetry

Run on channel : 1 (SN 1153)
User :
Electrode connection : standard
Potential control : Ewe
Ewe ctrl range : min = -2,50 V, max = 2,50 V
Ewe,I filtering : 50 kHz
Safety Limits :
	Do not start on E overload
Channel : Grounded
Acquisition started on : 12/20/2024 11:49:19.340
Technique started on : 12/20/2024 11:49:21.345
Loaded Setting File :  C:\Users\lab10\Desktop\Andraž Stariha\T20-6_ED-PP-Fe-1-1.5V-50-10-60m\6 CV for ECSA.mps
Saved on :
	File : 4 CV for ECSA_03_CV_C01.mpr
	Directory : C:\Users\lab10\Desktop\Andraž Stariha\IMT16-Fe-3_ED-PP-Co-1-1.5V-50-10-60m\
	Host : 178.172.20.122
Device : SP-200 (SN 0067)
Address : USB
EC-Lab for windows v11.52 (software)
Internet server v11.52 (firmware)
Command interpretor v11.52 (firmware)
Electrode material :
Initial state :
Electrolyte :
Comments :
Cable : standard
Reference electrode : SCE Saturated Calomel Electrode (0,241 V)
Electrode surface area : 0,001 cm²
Characteristic mass : 0,001 g
Equivalent Weight : 0,000 g/eq.
Density : 0,000 g/cm3
Volume (V) : 0,001 cm³
Cycle Definition : Charge/Discharge alternance
Ei (V)              -0,150
vs.                 Ref
dE/dt               300,000
dE/dt unit          mV/s
E1 (V)              0,050
vs.                 Ei
Step percent        85
N                   17
E range min (V)     -2,500
E range max (V)     2,500
I Range             10 mA
I Range min         Unset
I Range max         Unset
I Range init        Unset
Bandwidth           8
E2 (V)              -0,050
vs.                 Ei
nc cycles           2
Reverse Scan        1
Ef (V)              0,000
vs.                 Ei

Ewe/V	<I>/mA	time/s	cycle number
-1,4990123E-001	2,367577701807022E-002	2,004599949359545E+000	1,000000000000000E+000
-1,4390770E-001	3,636572995282450E-002	2,024599948854302E+000	1,000000000000000E+000
-1,3710073E-001	5,433411840230878E-002	2,047299948280852E+000	1,000000000000000E+000
-1,3032272E-001	6,910940983059992E-002	2,069899947709928E+000	1,000000000000000E+000
-1,2352677E-001	8,233482233033795E-002	2,092599947136478E+000	1,000000000000000E+000
-1,1671826E-001	9,502869741764808E-002	2,115299946563027E+000	1,000000000000000E+000
-1,0995245E-001	1,080406220479984E-001	2,137899945992103E+000	1,000000000000000E+000
-1,0312013E-001	1,203643498788904E-001	2,160599945418653E+000	1,000000000000000E+000
-9,9814788E-002	1,252306699752808E-001	2,171599945140770E+000	1,000000000000000E+000
-1,0580239E-001	2,574293242583681E-002	2,191499944638053E+000	1,000000000000000E+000
-1,1263646E-001	-1,287470642700309E-002	2,214199944064603E+000	1,000000000000000E+000
-1,1944322E-001	-3,705382735050204E-002	2,236899943491153E+000	1,000000000000000E+000
-1,2621520E-001	-5,531912819693663E-002	2,259499942920229E+000	1,000000000000000E+000
-1,3299701E-001	-6,948247730178969E-002	2,282199942346779E+000	1,000000000000000E+000
-1,3982631E-001	-8,068665663207253E-002	2,304899941773328E+000	1,000000000000000E+000
-1,4660983E-001	-9,093766224827071E-002	2,327499941202404E+000	1,000000000000000E+000
-1,5342031E-001	-1,003331209784069E-001	2,350099940631480E+000	1,000000000000000E+000
-1,6020544E-001	-1,086359424510963E-001	2,372799940058030E+000	1,000000000000000E+000
-1,6702786E-001	-1,152603061243469E-001	2,395499939484580E+000	1,000000000000000E+000
-1,7380632E-001	-1,224918193372466E-001	2,418099938913656E+000	1,000000000000000E+000
-1,8060485E-001	-1,290938124494943E-001	2,440799938340206E+000	1,000000000000000E+000
-1,8742412E-001	-1,352578989085650E-001	2,463499937766755E+000	1,000000000000000E+000
-1,9418839E-001	-1,409973226249417E-001	2,486099937195831E+000	1,000000000000000E+000
-1,9982332E-001	-1,433060765266418E-001	2,504799936723430E+000	1,000000000000000E+000
-1,9721374E-001	-8,923235364076931E-002	2,513999936491018E+000	1,000000000000000E+000
-1,9039384E-001	-4,893326896503669E-002	2,536699935917568E+000	1,000000000000000E+000
-1,8361422E-001	-2,465795407314753E-002	2,559299935346644E+000	1,000000000000000E+000
-1,7680557E-001	-6,084767570130739E-003	2,581999934773194E+000	1,000000000000000E+000
-1,7000274E-001	9,010695246211620E-003	2,604699934199743E+000	1,000000000000000E+000
-1,6323900E-001	2,366517804976964E-002	2,627299933628819E+000	1,000000000000000E+000
-1,5642957E-001	3,589766155584184E-002	2,649999933055369E+000	1,000000000000000E+000
-1,5016425E-001	4,789138347041444E-002	2,670799932529917E+000	1,000000000000000E+000
-1,4549990E-001	5,547296239604296E-002	2,686299932138354E+000	2,000000000000000E+000
-1,3872787E-001	6,654842149415630E-002	2,708899931567430E+000	2,000000000000000E+000
-1,3191997E-001	7,799894406959490E-002	2,731599930993980E+000	2,000000000000000E+000
-1,2512311E-001	8,923981072115961E-002	2,754299930420530E+000	2,000000000000000E+000
-1,1834656E-001	1,003611992868918E-001	2,776899929849606E+000	2,000000000000000E+000
-1,1153670E-001	1,125986496139940E-001	2,799599929276155E+000	2,000000000000000E+000
-1,0471398E-001	1,243715807919490E-001	2,822299928702705E+000	2,000000000000000E+000
-9,9960014E-002	1,356074213981628E-001	2,838199928301037E+000	2,000000000000000E+000
-1,0413978E-001	4,557237271338066E-002	2,852899927929684E+000	2,000000000000000E+000
-1,1091084E-001	2,348191997422621E-004	2,875499927358760E+000	2,000000000000000E+000
-1,1775110E-001	-2,743473938524127E-002	2,898199926785310E+000	2,000000000000000E+000
-1,2454261E-001	-4,700316692227080E-002	2,920899926211860E+000	2,000000000000000E+000
-1,3128792E-001	-6,227299590305092E-002	2,943499925640936E+000	2,000000000000000E+000
-1,3810888E-001	-7,519467794666579E-002	2,966199925067485E+000	2,000000000000000E+000
-1,4491445E-001	-8,558113951315782E-002	2,988899924494035E+000	2,000000000000000E+000
-1,5173215E-001	-9,515957650782414E-002	3,011499923923111E+000	2,000000000000000E+000
-1,5851742E-001	-1,037496511373857E-001	3,034099923352187E+000	2,000000000000000E+000
-1,6530487E-001	-1,107694035459781E-001	3,056799922778737E+000	2,000000000000000E+000
-1,7210969E-001	-1,178099860499728E-001	3,079499922205287E+000	2,000000000000000E+000
-1,7887835E-001	-1,242375324245244E-001	3,102099921634363E+000	2,000000000000000E+000
-1,8569581E-001	-1,310600024931200E-001	3,124799921060912E+000	2,000000000000000E+000
-1,9252032E-001	-1,372353253445233E-001	3,147499920487462E+000	2,000000000000000E+000
-1,9908376E-001	-1,433871679495493E-001	3,169399919934222E+000	2,000000000000000E+000
-1,9892502E-001	-1,093873524212672E-001	3,175299919785175E+000	2,000000000000000E+000
-1,9210309E-001	-5,425188263940900E-002	3,197999919211725E+000	2,000000000000000E+000
-1,8529657E-001	-2,850684972711148E-002	3,220699918638275E+000	2,000000000000000E+000
-1,7851080E-001	-8,790445401380610E-003	3,243299918067351E+000	2,000000000000000E+000
-1,7170270E-001	7,319766247676940E-003	3,265999917493900E+000	2,000000000000000E+000
-1,6491136E-001	2,078062646938236E-002	3,288699916920450E+000	2,000000000000000E+000
-1,5811095E-001	3,419594917243207E-002	3,311299916349526E+000	2,000000000000000E+000
-1,5131070E-001	4,645196227479931E-002	3,333999915776076E+000	2,000000000000000E+000
-1,4721909E-001	5,384202920770209E-002	3,347599915432511E+000	3,000000000000000E+000
-1,4039083E-001	6,523366832859923E-002	3,370299914859061E+000	3,000000000000000E+000
-1,3361661E-001	7,656841108325407E-002	3,392899914288137E+000	3,000000000000000E+000
-1,2680717E-001	8,770001056836985E-002	3,415599913714686E+000	3,000000000000000E+000
-1,2002167E-001	9,873841424619245E-002	3,438299913141236E+000	3,000000000000000E+000
-1,1323783E-001	1,105740565830347E-001	3,460899912570312E+000	3,000000000000000E+000
-1,0641833E-001	1,224508509168609E-001	3,483599911996862E+000	3,000000000000000E+000
-1,0023959E-001	1,332666431595244E-001	3,504299911473936E+000	3,000000000000000E+000
-1,0241763E-001	6,578145855914630E-002	3,514199911223841E+000	3,000000000000000E+000
-1,0924779E-001	1,032262591750763E-002	3,536899910650391E+000	3,000000000000000E+000
-1,1601615E-001	-2,003758626408481E-002	3,559499910079467E+000	3,000000000000000E+000
-1,2282956E-001	-4,138291186357523E-002	3,582199909506016E+000	3,000000000000000E+000
-1,2961066E-001	-5,777909011548776E-002	3,604899908932566E+000	3,000000000000000E+000
-1,3639231E-001	-7,108985527318279E-002	3,627499908361642E+000	3,000000000000000E+000
-1,4319320E-001	-8,220764780092438E-002	3,650199907788192E+000	3,000000000000000E+000
-1,4999229E-001	-9,198427472550130E-002	3,672799907217268E+000	3,000000000000000E+000
-1,5681808E-001	-9,964783215750850E-002	3,695499906643818E+000	3,000000000000000E+000
-1,6360334E-001	-1,077440805599541E-001	3,718099906072894E+000	3,000000000000000E+000
-1,7039829E-001	-1,151962558444488E-001	3,740799905499443E+000	3,000000000000000E+000
-1,7720623E-001	-1,211904841060181E-001	3,763499904925993E+000	3,000000000000000E+000
-1,8399054E-001	-1,282227779237368E-001	3,786099904355069E+000	3,000000000000000E+000
-1,9080339E-001	-1,344237756823600E-001	3,808799903781619E+000	3,000000000000000E+000
-1,9763476E-001	-1,406356197549026E-001	3,831499903208169E+000	3,000000000000000E+000
-1,9979273E-001	-1,290761977434158E-001	3,839399903008598E+000	3,000000000000000E+000
-1,9381519E-001	-6,129805883096251E-002	3,859299902505882E+000	3,000000000000000E+000
-1,8700403E-001	-3,238614913845161E-002	3,881999901932431E+000	3,000000000000000E+000
-1,8017773E-001	-1,229175317961628E-002	3,904699901358981E+000	3,000000000000000E+000
-1,7342146E-001	4,186153360883023E-003	3,927299900788057E+000	3,000000000000000E+000
-1,6660425E-001	1,866200620294806E-002	3,949999900214607E+000	3,000000000000000E+000
-1,5980434E-001	3,164273396248096E-002	3,972699899641157E+000	3,000000000000000E+000
-1,5302472E-001	4,442646375752764E-002	3,995299899070233E+000	3,000000000000000E+000
-1,4985919E-001	5,492049828171730E-002	4,005799898804980E+000	3,000000000000000E+000