File: ECSA/ECSA header/4 CV for ECSA_02_CV_C01.txt
EC-Lab ASCII FILE
Nb header lines : 61

Cyclic Voltammetry

Run on channel : 1 (SN 1153)
User :
Electrode connection : standard
Potential control : Ewe
Ewe ctrl range : min = -2,50 V, max = 2,50 V
Ewe,I filtering : 50 kHz
Safety Limits :
	Do not start on E overload
Channel : Grounded
Acquisition started on : 12/20/2024 11:49:19.340
Technique started on : 12/20/2024 11:49:20.042
Loaded Setting File :  C:\Users\lab10\Desktop\Andraž Stariha\T20-6_ED-PP-Fe-1-1.5V-50-10-60m\6 CV for ECSA.mps
Saved on :
	File : 4 CV for ECSA_02_CV_C01.mpr
	Directory : C:\Users\lab10\Desktop\Andraž Stariha\IMT16-Fe-3_ED-PP-Co-1-1.5V-50-10-60m\
	Host : 178.172.20.122
Device : SP-200 (SN 0067)
Address : USB
EC-Lab for windows v11.52 (software)
Internet server v11.52 (firmware)
Command interpretor v11.52 (firmware)
Electrode material :
Initial state :
Electrolyte :
Comments :
Cable : standard
Reference electrode : SCE Saturated Calomel Electrode (0,241 V)
Electrode surface area : 0,001 cm²
Characteristic mass : 0,001 g
Equivalent Weight : 0,000 g/eq.
Density : 0,000 g/cm3
Volume (V) : 0,001 cm³
Cycle Definition : Charge/Discharge alternance
Ei (V)              -0,150
vs.                 Ref
dE/dt               500,000
dE/dt unit          mV/s
E1 (V)              0,050
vs.                 Ei
Step percent        85
N                   17
E range min (V)     -2,500
E range max (V)     2,500
I Range             10 mA
I Range min         Unset
I Range max         Unset
I Range init        Unset
Bandwidth           8
E2 (V)              -0,050
vs.                 Ei
nc cycles           2
Reverse Scan        1
Ef (V)              0,000
vs.                 Ei

Ewe/V	<I>/mA	time/s	cycle number
-1,4989740E-001	-8,009178936481476E-002	7,021999822609359E-001	1,000000000000000E+000
-1,4391136E-001	3,200197605224273E-002	7,141999819577904E-001	1,000000000000000E+000
-1,3709769E-001	6,174574049737196E-002	7,277999816142255E-001	1,000000000000000E+000
-1,3029835E-001	8,342677088421646E-002	7,413999812706606E-001	1,000000000000000E+000
-1,2352648E-001	1,026578647952192E-001	7,549999809270957E-001	1,000000000000000E+000
-1,1673466E-001	1,205584892104530E-001	7,685999805835309E-001	1,000000000000000E+000
-1,0992659E-001	1,378594332663853E-001	7,821999802399660E-001	1,000000000000000E+000
-1,0313036E-001	1,551639648314449E-001	7,957999798964011E-001	1,000000000000000E+000
-9,9849179E-002	1,642579436302185E-001	8,023999797296710E-001	1,000000000000000E+000
-1,0421591E-001	4,366152236912069E-002	8,111999795073643E-001	1,000000000000000E+000
-1,1102576E-001	-1,454440336493690E-002	8,247999791637994E-001	1,000000000000000E+000
-1,1782630E-001	-4,994269235794491E-002	8,383999788202345E-001	1,000000000000000E+000
-1,2462767E-001	-7,551501155830920E-002	8,519999784766696E-001	1,000000000000000E+000
-1,3139273E-001	-9,541968532903389E-002	8,655999781331047E-001	1,000000000000000E+000
-1,3821092E-001	-1,117347070448880E-001	8,791999777895398E-001	1,000000000000000E+000
-1,4499201E-001	-1,253673252231235E-001	8,927999774459749E-001	1,000000000000000E+000
-1,5180758E-001	-1,373523312877295E-001	9,063999771024100E-001	1,000000000000000E+000
-1,5860681E-001	-1,481737785297807E-001	9,199999767588452E-001	1,000000000000000E+000
-1,6540687E-001	-1,579019918299305E-001	9,335999764152803E-001	1,000000000000000E+000
-1,7220034E-001	-1,670090728985085E-001	9,471999760717154E-001	1,000000000000000E+000
-1,7899217E-001	-1,757417968474324E-001	9,607999757281505E-001	1,000000000000000E+000
-1,8580490E-001	-1,839809790926665E-001	9,743999753845856E-001	1,000000000000000E+000
-1,9261198E-001	-1,923870507562233E-001	9,879999750410207E-001	1,000000000000000E+000
-1,9915679E-001	-2,003002276707604E-001	1,001099974710087E+000	1,000000000000000E+000
-1,9881880E-001	-1,444458234573174E-001	1,004799974616617E+000	1,000000000000000E+000
-1,9200681E-001	-7,044346692873649E-002	1,018399974273052E+000	1,000000000000000E+000
-1,8520688E-001	-3,478289704912635E-002	1,031999973929487E+000	1,000000000000000E+000
-1,7841122E-001	-8,835041003123892E-003	1,045599973585922E+000	1,000000000000000E+000
-1,7160511E-001	1,212948838144717E-002	1,059199973242357E+000	1,000000000000000E+000
-1,6482034E-001	3,066315534806563E-002	1,072799972898792E+000	1,000000000000000E+000
-1,5800940E-001	4,767679415226682E-002	1,086399972555228E+000	1,000000000000000E+000
-1,5122259E-001	6,330987972387481E-002	1,099999972211663E+000	1,000000000000000E+000
-1,4723656E-001	7,232516253498023E-002	1,107999972009566E+000	2,000000000000000E+000
-1,4041227E-001	8,717379566314809E-002	1,121599971666001E+000	2,000000000000000E+000
-1,3361625E-001	1,018602964131787E-001	1,135199971322436E+000	2,000000000000000E+000
-1,2682517E-001	1,165408304041193E-001	1,148799970978871E+000	2,000000000000000E+000
-1,2003954E-001	1,311104938067729E-001	1,162399970635306E+000	2,000000000000000E+000
-1,1323806E-001	1,458387069051242E-001	1,175999970291741E+000	2,000000000000000E+000
-1,0643836E-001	1,614515393939655E-001	1,189599969948176E+000	2,000000000000000E+000
-1,0024047E-001	1,759890158500637E-001	1,201999969634926E+000	2,000000000000000E+000
-1,0082345E-001	1,186283437727986E-001	1,204799969564192E+000	2,000000000000000E+000
-1,0762221E-001	2,128902628339804E-002	1,218399969220627E+000	2,000000000000000E+000
-1,1443254E-001	-2,353226927766627E-002	1,231999968877062E+000	2,000000000000000E+000
-1,2122925E-001	-5,427627363724230E-002	1,245599968533497E+000	2,000000000000000E+000
-1,2800339E-001	-7,732593152059053E-002	1,259199968189932E+000	2,000000000000000E+000
-1,3479055E-001	-9,587987424674760E-002	1,272799967846368E+000	2,000000000000000E+000
-1,4158344E-001	-1,112339875371616E-001	1,286399967502803E+000	2,000000000000000E+000
-1,4840488E-001	-1,244791429280667E-001	1,299999967159238E+000	2,000000000000000E+000
-1,5520817E-001	-1,358835713745065E-001	1,313599966815673E+000	2,000000000000000E+000
-1,6200557E-001	-1,465679083821665E-001	1,327199966472108E+000	2,000000000000000E+000
-1,6880575E-001	-1,561554474337754E-001	1,340799966128543E+000	2,000000000000000E+000
-1,7561395E-001	-1,656487863092482E-001	1,354399965784978E+000	2,000000000000000E+000
-1,8238628E-001	-1,737782710424649E-001	1,367999965441413E+000	2,000000000000000E+000
-1,8919817E-001	-1,822856884191424E-001	1,381599965097848E+000	2,000000000000000E+000
-1,9600634E-001	-1,904545226261680E-001	1,395199964754283E+000	2,000000000000000E+000
-1,9994561E-001	-1,860720366239548E-001	1,402999964557239E+000	2,000000000000000E+000
-1,9541883E-001	-9,129950476744852E-002	1,411999964329880E+000	2,000000000000000E+000
-1,8862249E-001	-4,598702830662632E-002	1,425599963986315E+000	2,000000000000000E+000
-1,8180236E-001	-1,693949900459296E-002	1,439199963642750E+000	2,000000000000000E+000
-1,7501748E-001	5,843110384063279E-003	1,452799963299185E+000	2,000000000000000E+000
-1,6821429E-001	2,521726577742822E-002	1,466399962955620E+000	2,000000000000000E+000
-1,6143049E-001	4,267797148304453E-002	1,479999962612055E+000	2,000000000000000E+000
-1,5462390E-001	5,882727544485555E-002	1,493599962268490E+000	2,000000000000000E+000
-1,4983626E-001	6,945559382438660E-002	1,503199962025974E+000	3,000000000000000E+000
-1,4382310E-001	8,281160507613072E-002	1,515199961722828E+000	3,000000000000000E+000
-1,3701263E-001	9,779614525177815E-002	1,528799961379264E+000	3,000000000000000E+000
-1,3021690E-001	1,122883141715649E-001	1,542399961035699E+000	3,000000000000000E+000
-1,2343583E-001	1,268293679322601E-001	1,555999960692134E+000	3,000000000000000E+000
-1,1664172E-001	1,417316487541033E-001	1,569599960348569E+000	3,000000000000000E+000
-1,0983521E-001	1,569522281915856E-001	1,583199960005004E+000	3,000000000000000E+000
-1,0302669E-001	1,724041115139699E-001	1,596799959661439E+000	3,000000000000000E+000
-9,9845365E-002	1,794034391641617E-001	1,603199959499761E+000	3,000000000000000E+000
-1,0422821E-001	5,919565855492692E-002	1,611999959277455E+000	3,000000000000000E+000
-1,1102193E-001	-4,361144816726805E-004	1,625599958933890E+000	3,000000000000000E+000
-1,1783095E-001	-3,699320486407481E-002	1,639199958590325E+000	3,000000000000000E+000
-1,2463806E-001	-6,375174330514710E-002	1,652799958246760E+000	3,000000000000000E+000
-1,3140957E-001	-8,414521955819476E-002	1,666399957903195E+000	3,000000000000000E+000
-1,3820769E-001	-1,010873188633914E-001	1,679999957559630E+000	3,000000000000000E+000
-1,4501220E-001	-1,153303265764407E-001	1,693599957216065E+000	3,000000000000000E+000
-1,5181834E-001	-1,276169733882849E-001	1,707199956872500E+000	3,000000000000000E+000
-1,5860322E-001	-1,385385555022366E-001	1,720799956528936E+000	3,000000000000000E+000
-1,6542228E-001	-1,487543711309622E-001	1,734399956185371E+000	3,000000000000000E+000
-1,7221266E-001	-1,577660794755502E-001	1,747999955841806E+000	3,000000000000000E+000
-1,7900448E-001	-1,666001490830236E-001	1,761599955498241E+000	3,000000000000000E+000
-1,8580548E-001	-1,751254398568554E-001	1,775199955154676E+000	3,000000000000000E+000
-1,9260482E-001	-1,831810105431932E-001	1,788799954811111E+000	3,000000000000000E+000
-1,9916183E-001	-1,909049574857240E-001	1,801899954480177E+000	3,000000000000000E+000
-1,9883278E-001	-1,358561366314457E-001	1,805599954386707E+000	3,000000000000000E+000
-1,9202484E-001	-6,306266147112172E-002	1,819199954043143E+000	3,000000000000000E+000
-1,8521176E-001	-2,825331193162106E-002	1,832799953699578E+000	3,000000000000000E+000
-1,7842117E-001	-2,828825109702379E-003	1,846399953356013E+000	3,000000000000000E+000
-1,7162541E-001	1,805701877617602E-002	1,859999953012448E+000	3,000000000000000E+000
-1,6483323E-001	3,595644636402567E-002	1,873599952668883E+000	3,000000000000000E+000
-1,5803435E-001	5,282106069080350E-002	1,887199952325318E+000	3,000000000000000E+000
-1,5122224E-001	6,845891459943250E-002	1,900799951981753E+000	3,000000000000000E+000
-1,4979421E-001	7,105788588523865E-002	1,903599951911019E+000	3,000000000000000E+000