File: ECSA/ECSA header/4 CV for ECSA_01_CV_C01.txt
EC-Lab ASCII FILE
Nb header lines : 61

Cyclic Voltammetry

Run on channel : 1 (SN 1153)
User :
Electrode connection : standard
Potential control : Ewe
Ewe ctrl range : min = -2,50 V, max = 2,50 V
Ewe,I filtering : 50 kHz
Safety Limits :
	Do not start on E overload
Channel : Grounded
Acquisition started on : 12/20/2024 11:49:19.340
Technique started on : 12/20/2024 11:49:19.340
Loaded Setting File :  C:\Users\lab10\Desktop\Andraž Stariha\T20-6_ED-PP-Fe-1-1.5V-50-10-60m\6 CV for ECSA.mps
Saved on :
	File : 4 CV for ECSA_01_CV_C01.mpr
	Directory : C:\Users\lab10\Desktop\Andraž Stariha\IMT16-Fe-3_ED-PP-Co-1-1.5V-50-10-60m\
	Host : 178.172.20.122
Device : SP-200 (SN 0067)
Address : USB
EC-Lab for windows v11.52 (software)
Internet server v11.52 (firmware)
Command interpretor v11.52 (firmware)
Electrode material :
Initial state :
Electrolyte :
Comments :
Cable : standard
Reference electrode : SCE Saturated Calomel Electrode (0,241 V)
Electrode surface area : 0,001 cm²
Characteristic mass : 0,001 g
Equivalent Weight : 0,000 g/eq.
Density : 0,000 g/cm3
Volume (V) : 0,001 cm³
Cycle Definition : Charge/Discharge alternance
Ei (V)              -0,150
vs.                 Ref
dE/dt               1000,000
dE/dt unit          mV/s
E1 (V)              0,050
vs.                 Ei
Step percent        85
N                   17
E range min (V)     -2,500
E range max (V)     2,500
I Range             10 mA
I Range min         Unset
I Range max         Unset
I Range init        Unset
Bandwidth           8
E2 (V)              -0,050
vs.                 Ei
nc cycles           2
Reverse Scan        1
Ef (V)              0,000
vs.                 Ei

Ewe/V	<I>/mA	time/s	cycle number
-1,5014201E-001	-1,643052697181702E+000	0,000000000000000E+000	1,000000000000000E+000
-1,4471562E-001	-3,348147239084938E-001	5,199999868636951E-003	1,000000000000000E+000
-1,3791367E-001	-1,380783745617005E-001	1,199999969685450E-002	1,000000000000000E+000
-1,3110478E-001	-4,850849288050052E-002	1,879999952507205E-002	1,000000000000000E+000
-1,2432966E-001	1,027445246997874E-002	2,559999935328960E-002	1,000000000000000E+000
-1,1753821E-001	5,532941184537782E-002	3,239999918150716E-002	1,000000000000000E+000
-1,1073720E-001	9,374272750756107E-002	3,919999900972471E-002	1,000000000000000E+000
-1,0391875E-001	1,282194432369583E-001	4,599999883794226E-002	1,000000000000000E+000
-9,9925622E-002	1,471286714076996E-001	4,999999873689376E-002	1,000000000000000E+000
-9,9933267E-002	1,115730181336403E-001	5,039999872678891E-002	1,000000000000000E+000
-1,0510439E-001	-3,062336993281167E-002	5,559999859542586E-002	1,000000000000000E+000
-1,1191220E-001	-1,013460238737023E-001	6,239999842364341E-002	1,000000000000000E+000
-1,1873162E-001	-1,441501634708402E-001	6,919999825186096E-002	1,000000000000000E+000
-1,2551507E-001	-1,751445124118618E-001	7,599999808007851E-002	1,000000000000000E+000
-1,3229507E-001	-1,994257015176109E-001	8,279999790829606E-002	1,000000000000000E+000
-1,3909894E-001	-2,190192115140239E-001	8,959999773651361E-002	1,000000000000000E+000
-1,4591093E-001	-2,360471560459687E-001	9,639999756473117E-002	1,000000000000000E+000
-1,5270096E-001	-2,509625774164288E-001	1,031999973929487E-001	1,000000000000000E+000
-1,5950149E-001	-2,644497471828798E-001	1,099999972211663E-001	1,000000000000000E+000
-1,6630000E-001	-2,771798603171196E-001	1,167999970493838E-001	1,000000000000000E+000
-1,7309493E-001	-2,891243336271150E-001	1,235999968776014E-001	1,000000000000000E+000
-1,7988065E-001	-3,000209060464833E-001	1,303999967058189E-001	1,000000000000000E+000
-1,8668059E-001	-3,113811875082313E-001	1,371999965340365E-001	1,000000000000000E+000
-1,9349679E-001	-3,220345532390629E-001	1,439999963622540E-001	1,000000000000000E+000
-1,9910528E-001	-3,302880094997835E-001	1,495999962207861E-001	1,000000000000000E+000
-1,9991121E-001	-3,139122128486633E-001	1,503999962005764E-001	1,000000000000000E+000
-1,9771487E-001	-2,157824426085422E-001	1,525999961449998E-001	1,000000000000000E+000
-1,9091770E-001	-1,181808349210760E-001	1,593999959732173E-001	1,000000000000000E+000
-1,8411872E-001	-6,480921159482000E-002	1,661999958014349E-001	1,000000000000000E+000
-1,7730428E-001	-2,557447675076197E-002	1,729999956296524E-001	1,000000000000000E+000
-1,7050447E-001	6,284218087493798E-003	1,797999954578700E-001	1,000000000000000E+000
-1,6372342E-001	3,387012685698231E-002	1,865999952860875E-001	1,000000000000000E+000
-1,5692911E-001	5,889165626103932E-002	1,933999951143051E-001	1,000000000000000E+000
-1,5079835E-001	7,904390360151159E-002	1,994999949602061E-001	1,000000000000000E+000
-1,4791901E-001	8,859726463379070E-002	2,023999948869459E-001	2,000000000000000E+000
-1,4110474E-001	1,101745757387108E-001	2,091999947151635E-001	2,000000000000000E+000
-1,3430911E-001	1,312821661604178E-001	2,159999945433810E-001	2,000000000000000E+000
-1,2751573E-001	1,518294234792847E-001	2,227999943715986E-001	2,000000000000000E+000
-1,2073012E-001	1,722598612759603E-001	2,295999941998161E-001	2,000000000000000E+000
-1,1393580E-001	1,934234849595668E-001	2,363999940280337E-001	2,000000000000000E+000
-1,0714028E-001	2,150782898806947E-001	2,431999938562512E-001	2,000000000000000E+000
-1,0104356E-001	2,348796534869404E-001	2,492999937021523E-001	2,000000000000000E+000
-9,9711590E-002	2,403287291526794E-001	2,505999936693115E-001	2,000000000000000E+000
-1,0171314E-001	1,243043186914296E-001	2,525999936187873E-001	2,000000000000000E+000
-1,0851724E-001	5,586790958486403E-003	2,593999934470048E-001	2,000000000000000E+000
-1,1531564E-001	-5,602878500258146E-002	2,661999932752224E-001	2,000000000000000E+000
-1,2210470E-001	-9,934316254384568E-002	2,729999931034399E-001	2,000000000000000E+000
-1,2888590E-001	-1,324572309385981E-001	2,797999929316575E-001	2,000000000000000E+000
-1,3569562E-001	-1,587388913467289E-001	2,865999927598750E-001	2,000000000000000E+000
-1,4249092E-001	-1,808371829029045E-001	2,933999925880926E-001	2,000000000000000E+000
-1,4929073E-001	-2,002840756213116E-001	3,001999924163101E-001	2,000000000000000E+000
-1,5609483E-001	-2,168768706378592E-001	3,069999922445277E-001	2,000000000000000E+000
-1,6289502E-001	-2,323692829668289E-001	3,137999920727452E-001	2,000000000000000E+000
-1,6969258E-001	-2,462868162365330E-001	3,205999919009628E-001	2,000000000000000E+000
-1,7649479E-001	-2,592887613536730E-001	3,273999917291803E-001	2,000000000000000E+000
-1,8327682E-001	-2,717923903837800E-001	3,341999915573979E-001	2,000000000000000E+000
-1,9008724E-001	-2,840349161997429E-001	3,409999913856154E-001	2,000000000000000E+000
-1,9690356E-001	-2,961117022059602E-001	3,477999912138330E-001	2,000000000000000E+000
-1,9967808E-001	-2,994152307510376E-001	3,505999911430990E-001	2,000000000000000E+000
-1,9973540E-001	-2,706311941146851E-001	3,511999911279418E-001	2,000000000000000E+000
-1,9431347E-001	-1,292252219345753E-001	3,563999909965787E-001	2,000000000000000E+000
-1,8751319E-001	-6,428822174120785E-002	3,631999908247963E-001	2,000000000000000E+000
-1,8070202E-001	-2,171180500920383E-002	3,699999906530138E-001	2,000000000000000E+000
-1,7390099E-001	1,162638746177436E-002	3,767999904812314E-001	2,000000000000000E+000
-1,6711684E-001	3,974877679320352E-002	3,835999903094489E-001	2,000000000000000E+000
-1,6031881E-001	6,462008665994301E-002	3,903999901376665E-001	2,000000000000000E+000
-1,5351564E-001	8,732163238437363E-002	3,971999899658840E-001	2,000000000000000E+000
-1,4971395E-001	9,970841556787491E-002	4,009999898698879E-001	3,000000000000000E+000
-1,4450136E-001	1,160711156044276E-001	4,061999897385249E-001	3,000000000000000E+000
-1,3772221E-001	1,368615740620958E-001	4,129999895667424E-001	3,000000000000000E+000
-1,3092025E-001	1,568258638108100E-001	4,197999893949600E-001	3,000000000000000E+000
-1,2413211E-001	1,771704630155009E-001	4,265999892231775E-001	3,000000000000000E+000
-1,1734783E-001	1,977582739891667E-001	4,333999890513951E-001	3,000000000000000E+000
-1,1054204E-001	2,185749609634522E-001	4,401999888796126E-001	3,000000000000000E+000
-1,0372788E-001	2,406541923319305E-001	4,469999887078302E-001	3,000000000000000E+000
-9,9868298E-002	2,544823288917542E-001	4,507999886118341E-001	3,000000000000000E+000
-9,9868290E-002	2,190411388874054E-001	4,511999886017293E-001	3,000000000000000E+000
-1,0509422E-001	6,553806519332295E-002	4,563999884703662E-001	3,000000000000000E+000
-1,1191615E-001	-1,473276824309272E-002	4,631999882985838E-001	3,000000000000000E+000
-1,1871392E-001	-6,595013339938283E-002	4,699999881268013E-001	3,000000000000000E+000
-1,2551937E-001	-1,038651104454402E-001	4,767999879550189E-001	3,000000000000000E+000
-1,3227369E-001	-1,337233311560337E-001	4,835999877832364E-001	3,000000000000000E+000
-1,3910444E-001	-1,582024157432897E-001	4,903999876114540E-001	3,000000000000000E+000
-1,4590509E-001	-1,789332706321147E-001	4,971999874396715E-001	3,000000000000000E+000
-1,5269750E-001	-1,970771050400790E-001	5,039999872678891E-001	3,000000000000000E+000
-1,5949720E-001	-2,130654551601765E-001	5,107999870961066E-001	3,000000000000000E+000
-1,6629761E-001	-2,280070855667868E-001	5,175999869243242E-001	3,000000000000000E+000
-1,7309159E-001	-2,415216604986199E-001	5,243999867525417E-001	3,000000000000000E+000
-1,7988449E-001	-2,540014451369643E-001	5,311999865807593E-001	3,000000000000000E+000
-1,8668348E-001	-2,668853715767890E-001	5,379999864089768E-001	3,000000000000000E+000
-1,9350025E-001	-2,788179257113370E-001	5,447999862371944E-001	3,000000000000000E+000
-1,9910863E-001	-2,881562974944241E-001	5,503999860957265E-001	3,000000000000000E+000
-1,9988827E-001	-2,729774117469788E-001	5,511999860755168E-001	3,000000000000000E+000
-1,9772908E-001	-1,769971715639250E-001	5,533999860199401E-001	3,000000000000000E+000
-1,9089261E-001	-8,334764307846854E-002	5,601999858481577E-001	3,000000000000000E+000
-1,8411548E-001	-3,291355506757987E-002	5,669999856763752E-001	3,000000000000000E+000
-1,7731386E-001	3,760367616700849E-003	5,737999855045928E-001	3,000000000000000E+000
-1,7051943E-001	3,358042684931201E-002	5,805999853328103E-001	3,000000000000000E+000
-1,6373405E-001	5,959385097958203E-002	5,873999851610279E-001	3,000000000000000E+000
-1,5692599E-001	8,330278367066102E-002	5,941999849892454E-001	3,000000000000000E+000
-1,5091144E-001	1,026006444390080E-001	6,001999848376727E-001	3,000000000000000E+000
-1,4970630E-001	1,052401438355446E-001	6,013999848073581E-001	3,000000000000000E+000